'901_2723.nad' 'Jun 07 2014 08:37' 'I'          2.    1  'TIME'   41  'RAW'
  Filename         Date            Scan       Mon    Prf  Base   #pts  Type    
20 mT wafer 901 LHHTML JED191                       F1: OFF  F2: OFF 
 460    1  500  512 608 512   0   4.7500  0.00000 0.00000   0.00000    1 
 Collimation      Mosaic    Wavelength   T-Start   Incr.   H-field #Det    
  1       0.14261    0.00000    0.14261
  2       0.14261    0.00000    0.14261
  3       0.15000    0.00500    0.35000
  4       0.50000    0.00000    0.50000
  5       0.42782    0.00000    0.42782
  6       0.57042    0.00000    0.57042
 Mot:    Start       Step      End
     A3     MIN      MONITOR      COUNTS 
    0.15000 0.03        1600           0 
    0.15500 0.03        1558           0 
    0.16000 0.03        1546           0 
    0.16500 0.03        1587           0 
    0.17000 0.03        1549           0 
    0.17500 0.03        1570           0 
    0.18000 0.03        1500           1 
    0.18500 0.03        1541           0 
    0.19000 0.03        1610           1 
    0.19500 0.03        1529           0 
    0.20000 0.03        1575           0 
    0.20500 0.03        1492           1 
    0.21000 0.03        1565           2 
    0.21500 0.03        1546           4 
    0.22000 0.03        1518           6 
    0.22500 0.03        1539          10 
    0.23000 0.03        1501          21 
    0.23500 0.03        1559          47 
    0.24000 0.03        1457         184 
    0.24500 0.03        1482         402 
    0.25000 0.03        1529         518 
    0.25500 0.03        1607         444 
    0.26000 0.03        1517         209 
    0.26500 0.03        1541          50 
    0.27000 0.03        1482          13 
    0.27500 0.03        1484           3 
    0.28000 0.03        1510           1 
    0.28500 0.03        1543           2 
    0.29000 0.03        1541           1 
    0.29500 0.03        1522           1 
    0.30000 0.03        1555           1 
    0.30500 0.03        1539           1 
    0.31000 0.03        1554           0 
    0.31500 0.03        1592           0 
    0.32000 0.03        1497           0 
    0.32500 0.03        1528           0 
    0.33000 0.03        1550           0 
    0.33500 0.03        1585           0 
    0.34000 0.03        1533           0 
    0.34500 0.03        1469           0 
    0.35000 0.03        1469           0 
