'901_2732.nad' 'Jun 07 2014 15:07' 'I'          2.    1  'TIME'   41  'RAW'
  Filename         Date            Scan       Mon    Prf  Base   #pts  Type    
0.5 mT after 20 mT wafer 901 LHHTML JED191          F1: OFF  F2: OFF 
 460    1  500  512 608 512   0   4.7500  0.00000 0.00000   0.00000    1 
 Collimation      Mosaic    Wavelength   T-Start   Incr.   H-field #Det    
  1       0.14261    0.00000    0.14261
  2       0.14261    0.00000    0.14261
  3       0.15000    0.00500    0.35000
  4       0.50000    0.00000    0.50000
  5       0.42782    0.00000    0.42782
  6       0.57042    0.00000    0.57042
 Mot:    Start       Step      End
     A3     MIN      MONITOR      COUNTS 
    0.15000 0.03        1478           0 
    0.15500 0.03        1496           2 
    0.16000 0.03        1543           0 
    0.16500 0.03        1524           0 
    0.17000 0.03        1515           0 
    0.17500 0.03        1497           0 
    0.18000 0.03        1511           1 
    0.18500 0.03        1549           0 
    0.19000 0.03        1525           1 
    0.19500 0.03        1538           2 
    0.20000 0.03        1510           0 
    0.20500 0.03        1576           2 
    0.21000 0.03        1451           3 
    0.21500 0.03        1483           3 
    0.22000 0.03        1540           5 
    0.22500 0.03        1526          10 
    0.23000 0.03        1532          18 
    0.23500 0.03        1535          55 
    0.24000 0.03        1537         231 
    0.24500 0.03        1519         404 
    0.25000 0.03        1475         517 
    0.25500 0.03        1575         437 
    0.26000 0.03        1527         193 
    0.26500 0.03        1518          48 
    0.27000 0.03        1480          13 
    0.27500 0.03        1497           5 
    0.28000 0.03        1424           5 
    0.28500 0.03        1573           1 
    0.29000 0.03        1500           1 
    0.29500 0.03        1552           1 
    0.30000 0.03        1417           1 
    0.30500 0.03        1582           0 
    0.31000 0.03        1558           0 
    0.31500 0.03        1452           0 
    0.32000 0.03        1529           0 
    0.32500 0.03        1546           0 
    0.33000 0.03        1537           0 
    0.33500 0.03        1544           0 
    0.34000 0.03        1542           0 
    0.34500 0.03        1447           0 
    0.35000 0.03        1490           2 
