'lit_2778.ndd' 'Jun 09 2014 10:33' 'I'         61.    1  'TIME'  132  'RAW'
  Filename         Date            Scan       Mon    Prf  Base   #pts  Type    
20 mT wafer 916 LHHTML JED191                       F1: ON   F2: ON  
 460    1  500  512 608 512   0   4.7500  0.00000 0.00000   0.00000    1 
 Collimation      Mosaic    Wavelength   T-Start   Incr.   H-field #Det    
  1       0.12294    0.00492    0.76712
  2       0.12294    0.00492    0.76712
  3       0.00000    0.00000    0.00000
  4       0.00000    0.00000    0.00000
  5       0.36881    0.01475    2.30135
  6       0.49174    0.01967    3.06846
 Mot:    Start       Step      End
     A1        A2        A5        A6     MIN      MONITOR      COUNTS   _q    _w  
    0.12470     0.12430     0.36830     0.49270 1.02       49275         193     0.01000     0.15120 
    0.12470     0.12430     0.38420     0.51230 0.98       46918         206     0.01040     0.15725 
    0.13400     0.13330     0.39820     0.53180 0.94       47127         261     0.01080     0.16329 
    0.13400     0.13330     0.41280     0.55140 0.91       45841         284     0.01120     0.16934 
    0.14330     0.14350     0.42740     0.57100 0.88       45809         307     0.01160     0.17539 
    0.14330     0.14350     0.44200     0.59080 0.85       44706         335     0.01200     0.18144 
    0.15260     0.15280     0.45720     0.61030 0.82       44827         380     0.01240     0.18748 
    0.15260     0.15280     0.47180     0.63010 0.80       43519         401     0.01280     0.19353 
    0.16430     0.16300     0.48710     0.64970 0.77       44802         455     0.01320     0.19958 
    0.16430     0.16300     0.50100     0.66950 0.75       42837         455     0.01360     0.20563 
    0.17300     0.17300     0.51630     0.68910 0.73       43819         530     0.01400     0.21168 
    0.17300     0.17300     0.53150     0.70860 0.71       42067         528     0.01440     0.21772 
    0.18230     0.18260     0.54550     0.72870 0.69       42488         574     0.01480     0.22377 
    0.18230     0.18260     0.56070     0.74820 0.67       41559         638     0.01520     0.22982 
    0.19290     0.19250     0.57600     0.76810 0.66       42595         610     0.01560     0.23587 
    0.19290     0.19250     0.58990     0.78740 0.64       41052         629     0.01600     0.24192 
    0.20220     0.20240     0.60520     0.80720 0.63       41637         714     0.01640     0.24796 
    0.20220     0.20240     0.61910     0.82670 0.61       40860         685     0.01680     0.25401 
    0.21270     0.21230     0.63370     0.84680 0.60       41329         756     0.01720     0.26006 
    0.21270     0.21230     0.64900     0.86610 0.58       40551         715     0.01760     0.26611 
    0.22140     0.22160     0.66360     0.88570 0.57       40735         816     0.01800     0.27215 
    0.22140     0.22160     0.67820     0.90570 0.56       40449         804     0.01840     0.27820 
    0.23190     0.23190     0.69280     0.92530 0.55       40080         849     0.01880     0.28425 
    0.23190     0.23190     0.70800     0.94510 0.54       39908         884     0.01920     0.29030 
    0.24190     0.24180     0.72260     0.96440 0.53       40139         921     0.01960     0.29635 
    0.24190     0.24180     0.73720     0.98420 0.52       39980         912     0.02000     0.30239 
    0.25300     0.25200     0.75190     1.00380 0.51       40360         956     0.02040     0.30844 
    0.25300     0.25200     0.76710     1.02330 0.50       39818         978     0.02080     0.31449 
    0.26230     0.26070     0.78170     1.04340 0.49       40003        1040     0.02120     0.32054 
    0.26230     0.26070     0.79630     1.06270 0.48       39247        1003     0.02160     0.32659 
    0.27160     0.27090     0.81090     1.08280 0.47       39754        1118     0.02200     0.33263 
    0.27160     0.27090     0.82550     1.10230 0.46       38810        1050     0.02240     0.33868 
    0.28090     0.28120     0.84080     1.12210 0.46       39345        1133     0.02280     0.34473 
    0.28090     0.28120     0.85540     1.14170 0.45       38421        1113     0.02320     0.35078 
    0.29150     0.29080     0.87000     1.16130 0.44       39394        1196     0.02360     0.35683 
    0.29150     0.29080     0.88460     1.18110 0.43       38675        1187     0.02400     0.36287 
    0.30140     0.30070     0.89980     1.20060 0.43       39116        1252     0.02440     0.36892 
    0.30080     0.30070     0.91440     1.22020 0.42       38380        1294     0.02480     0.37497 
    0.31070     0.31030     0.92900     1.23970 0.41       38701        1308     0.02520     0.38102 
    0.31070     0.31030     0.94360     1.25980 0.41       38273        1373     0.02560     0.38706 
    0.32120     0.32060     0.95820     1.27940 0.40       38970        1460     0.02600     0.39311 
    0.32120     0.32060     0.97350     1.29920 0.40       38286        1465     0.02640     0.39916 
    0.32990     0.32990     0.98740     1.31870 0.39       38687        1493     0.02680     0.40521 
    0.32990     0.32990     1.00200     1.33850 0.38       37698        1490     0.02720     0.41126 
    0.34170     0.34010     1.01660     1.35810 0.38       38931        1540     0.02760     0.41730 
    0.34170     0.34010     1.03190     1.37770 0.37       38525        1504     0.02800     0.42335 
    0.35100     0.34940     1.04650     1.39720 0.37       38866        1583     0.02840     0.42940 
    0.35100     0.34940     1.06110     1.41680 0.36       38208        1656     0.02880     0.43545 
    0.35970     0.35960     1.07570     1.43660 0.36       38283        1721     0.02920     0.44150 
    0.35970     0.35960     1.09090     1.45640 0.35       37933        1617     0.02960     0.44754 
    0.37020     0.36890     1.10550     1.47620 0.35       38074        1736     0.03000     0.45359 
    0.37020     0.36890     1.12010     1.49550 0.35       37556        1742     0.03040     0.45964 
    0.38010     0.37920     1.13480     1.51530 0.34       37745        1803     0.03080     0.46569 
    0.38010     0.37920     1.15000     1.53510 0.34       37841        1849     0.03120     0.47174 
    0.39010     0.38880     1.16460     1.55470 0.33       38080        1819     0.03160     0.47778 
    0.39010     0.38880     1.17920     1.57430 0.33       37973        1926     0.03200     0.48383 
    0.39940     0.39840     1.19380     1.59380 0.33       38080        1896     0.03240     0.48988 
    0.39940     0.39840     1.20840     1.61360 0.32       37506        1916     0.03280     0.49593 
    0.40930     0.40830     1.22370     1.63340 0.32       38163        2003     0.03320     0.50197 
    0.40930     0.40830     1.23830     1.65300 0.31       37793        1912     0.03360     0.50802 
    0.41920     0.41820     1.25290     1.67260 0.31       38267        2049     0.03400     0.51407 
    0.41920     0.41820     1.26750     1.69210 0.31       37353        2091     0.03440     0.52012 
    0.42910     0.42850     1.28270     1.71220 0.30       38094        2116     0.03480     0.52617 
    0.42910     0.42850     1.29730     1.73170 0.30       37674        2155     0.03520     0.53221 
    0.43840     0.43740     1.31190     1.75130 0.30       37645        2248     0.03560     0.53826 
    0.43840     0.44270     1.32650     1.77090 0.29       37302        2205     0.03600     0.54431 
    0.44840     0.44270     1.34180     1.79070 0.29       37426        2255     0.03640     0.55036 
    0.44840     0.45290     1.35640     1.81020 0.29       37456        2308     0.03680     0.55641 
    0.45890     0.45290     1.37100     1.83000 0.29       37664        2239     0.03720     0.56245 
    0.45890     0.46220     1.38560     1.84960 0.28       37111        2298     0.03760     0.56850 
    0.46940     0.46220     1.40150     1.86920 0.28       38123        2312     0.03800     0.57455 
    0.46940     0.47220     1.41540     1.88920 0.28       37594        2409     0.03840     0.58060 
    0.47870     0.47220     1.43070     1.90850 0.27       37901        2463     0.03880     0.58665 
    0.47940     0.48210     1.44530     1.92830 0.27       37112        2502     0.03920     0.59269 
    0.48740     0.48210     1.45920     1.94790 0.27       37493        2410     0.03960     0.59874 
    0.48740     0.49230     1.47510     1.96800 0.27       36710        2460     0.04000     0.60479 
    0.49730     0.49230     1.48970     1.98730 0.26       37743        2487     0.04040     0.61084 
    0.49730     0.50130     1.50430     2.00680 0.26       37263        2506     0.04080     0.61688 
    0.50730     0.50690     1.51890     2.02660 0.26       37267        2575     0.04120     0.62293 
    0.50730     0.50690     1.53420     2.04620 0.26       37551        2612     0.04160     0.62898 
    0.51660     0.51650     1.54880     2.06630 0.25       37649        2622     0.04200     0.63503 
    0.51720     0.51650     1.56340     2.08580 0.25       36753        2579     0.04240     0.64108 
    0.52710     0.52610     1.57800     2.10540 0.25       37432        2714     0.04280     0.64712 
    0.52710     0.52610     1.59320     2.12520 0.25       37104        2641     0.04320     0.65317 
    0.53640     0.53600     1.60780     2.14500 0.25       37445        2800     0.04360     0.65922 
    0.53640     0.53600     1.62240     2.16460 0.24       36981        2682     0.04400     0.66527 
    0.54820     0.54570     1.63700     2.18390 0.24       37711        2756     0.04440     0.67132 
    0.54820     0.55060     1.65160     2.20370 0.24       37312        2790     0.04480     0.67736 
    0.55690     0.55620     1.66690     2.22350 0.24       37272        2858     0.04520     0.68341 
    0.55750     0.55620     1.68150     2.24330 0.24       37129        2702     0.04560     0.68946 
    0.56560     0.56520     1.69610     2.26260 0.23       37230        2759     0.04600     0.69551 
    0.56560     0.57050     1.71070     2.28240 0.23       36923        2812     0.04640     0.70155 
    0.57610     0.57050     1.72590     2.30220 0.23       37251        2819     0.04680     0.70760 
    0.57610     0.58070     1.74050     2.32200 0.23       36867        2915     0.04720     0.71365 
    0.58600     0.58100     1.75580     2.34160 0.23       37397        2875     0.04760     0.71970 
    0.58600     0.59000     1.76980     2.36110 0.23       37036        2994     0.04800     0.72575 
    0.59660     0.59560     1.78500     2.38070 0.22       37551        2953     0.04840     0.73179 
    0.59660     0.59560     1.80020     2.40050 0.22       37248        2968     0.04880     0.73784 
    0.60590     0.60490     1.81420     2.42010 0.22       37600        3053     0.04920     0.74389 
    0.60590     0.60490     1.82880     2.43960 0.22       37035        3010     0.04960     0.74994 
    0.61580     0.61450     1.84340     2.45940 0.22       37355        3081     0.05000     0.75599 
    0.61580     0.62010     1.85870     2.47930 0.22       37066        3051     0.05040     0.76203 
    0.62510     0.62010     1.87330     2.49880 0.21       37489        3012     0.05080     0.76808 
    0.62510     0.62940     1.88790     2.51860 0.21       37606        2998     0.05120     0.77413 
    0.63500     0.62940     1.90250     2.53790 0.21       37467        3071     0.05160     0.78018 
    0.63500     0.63900     1.91770     2.55800 0.21       37568        3114     0.05200     0.78623 
    0.64560     0.64490     1.93230     2.57760 0.21       37072        3234     0.05240     0.79227 
    0.64560     0.64490     1.94690     2.59740 0.21       37094        3215     0.05280     0.79832 
    0.65490     0.65360     1.96150     2.61670 0.20       37199        3171     0.05320     0.80437 
    0.65490     0.65910     1.97680     2.63650 0.20       36696        3324     0.05360     0.81042 
    0.66480     0.65910     1.99140     2.65630 0.20       37124        3233     0.05400     0.81646 
    0.66480     0.66940     2.00600     2.67590 0.20       37247        3285     0.05440     0.82251 
    0.67530     0.66940     2.02060     2.69570 0.20       37082        3240     0.05480     0.82856 
    0.67530     0.67840     2.03520     2.71500 0.20       37270        3343     0.05520     0.83461 
    0.68460     0.68360     2.05040     2.73500 0.20       37378        3398     0.05560     0.84066 
    0.68460     0.68360     2.06500     2.75460 0.20       37130        3391     0.05600     0.84670 
    0.69640     0.69360     2.07960     2.77440 0.19       37235        3375     0.05640     0.85275 
    0.69640     0.69360     2.09420     2.79370 0.19       37541        3383     0.05680     0.85880 
    0.70570     0.70320     2.10950     2.81330 0.19       37559        3517     0.05720     0.86485 
    0.70570     0.70320     2.12410     2.83310 0.19       37327        3618     0.05760     0.87090 
    0.71500     0.71310     2.13870     2.85290 0.19       37386        3532     0.05800     0.87694 
    0.71500     0.71310     2.15330     2.87270 0.19       37029        3558     0.05840     0.88299 
    0.72550     0.72300     2.16850     2.89200 0.19       37313        3566     0.05880     0.88904 
    0.72550     0.72300     2.18310     2.91180 0.19       37386        3549     0.05920     0.89509 
    0.73420     0.73320     2.19710     2.93160 0.18       37466        3541     0.05960     0.90114 
    0.73420     0.73320     2.21230     2.95140 0.18       36966        3537     0.06000     0.90718 
    0.74350     0.74190     2.22630     2.97070 0.18       37311        3733     0.06040     0.91323 
    0.74350     0.74750     2.24160     2.99030 0.18       37157        3749     0.06080     0.91928 
    0.75410     0.74750     2.25620     3.01010 0.18       37395        3774     0.06120     0.92533 
    0.75410     0.75740     2.27080     3.02970 0.18       37163        3698     0.06160     0.93137 
    0.76460     0.75740     2.28540     3.04950 0.18       37452        3769     0.06200     0.93742 
    0.76460     0.76700     2.30060     3.06900 0.18       36977        3763     0.06240     0.94347 
