'lit_2775.ndd' 'Jun 09 2014 06:15' 'I'         61.    1  'TIME'  226  'RAW'
  Filename         Date            Scan       Mon    Prf  Base   #pts  Type    
2 mT wafer 916 LHHTML JED191                        F1: ON   F2: ON  
 460    1  500  512 608 512   0   4.7500  0.00000 0.00000   0.00000    1 
 Collimation      Mosaic    Wavelength   T-Start   Incr.   H-field #Det    
  1       0.12294    0.00492    1.22935
  2       0.12294    0.00492    1.22935
  3       0.00000    0.00000    0.00000
  4       0.00000    0.00000    0.00000
  5       0.36881    0.01475    3.68806
  6       0.49174    0.01967    4.91741
 Mot:    Start       Step      End
     A1        A2        A5        A6     MIN      MONITOR      COUNTS   _q    _w  
    0.12340     0.12430     0.36830     0.49270 1.02       47641         138     0.01000     0.15120 
    0.12340     0.12430     0.38420     0.51230 0.98       46149         136     0.01040     0.15725 
    0.13330     0.13330     0.39820     0.53180 0.94       45548         243     0.01080     0.16329 
    0.13330     0.13330     0.41280     0.55140 0.91       44062         226     0.01120     0.16934 
    0.14390     0.14350     0.42740     0.57100 0.88       44846         300     0.01160     0.17539 
    0.14390     0.14350     0.44200     0.59080 0.85       44074         288     0.01200     0.18144 
    0.15260     0.15280     0.45720     0.61030 0.82       44110         368     0.01240     0.18748 
    0.15010     0.15280     0.47180     0.63010 0.80       42682         367     0.01280     0.19353 
    0.15940     0.16300     0.48710     0.64970 0.77       42921         415     0.01320     0.19958 
    0.16560     0.16300     0.50100     0.66950 0.75       42925         493     0.01360     0.20563 
    0.16990     0.17300     0.51630     0.68910 0.73       42220         517     0.01400     0.21168 
    0.17490     0.17300     0.53150     0.70860 0.71       42237         535     0.01440     0.21772 
    0.17920     0.18260     0.54550     0.72870 0.69       41763         546     0.01480     0.22377 
    0.18420     0.18260     0.56070     0.74820 0.67       41332         562     0.01520     0.22982 
    0.18980     0.19250     0.57600     0.76810 0.66       41246         662     0.01560     0.23587 
    0.19470     0.19250     0.58990     0.78740 0.64       40901         641     0.01600     0.24192 
    0.19910     0.20240     0.60520     0.80720 0.63       40965         656     0.01640     0.24796 
    0.20460     0.20240     0.61910     0.82670 0.61       40660         673     0.01680     0.25401 
    0.20840     0.21230     0.63370     0.84680 0.60       40329         710     0.01720     0.26006 
    0.21460     0.21230     0.64900     0.86610 0.58       40374         742     0.01760     0.26611 
    0.21830     0.22160     0.66360     0.88570 0.57       40446         819     0.01800     0.27215 
    0.22330     0.22160     0.67820     0.90570 0.56       39660         737     0.01840     0.27820 
    0.22950     0.23190     0.69280     0.92530 0.55       39994         851     0.01880     0.28425 
    0.23320     0.23190     0.70800     0.94510 0.54       39583         875     0.01920     0.29030 
    0.23880     0.24180     0.72260     0.96440 0.53       39723         899     0.01960     0.29635 
    0.24310     0.24180     0.73720     0.98450 0.52       39274         938     0.02000     0.30239 
    0.24810     0.25200     0.75190     1.00380 0.51       39260         948     0.02040     0.30844 
    0.25360     0.25200     0.76710     1.02360 0.50       39079         965     0.02080     0.31449 
    0.25860     0.26070     0.78170     1.04340 0.49       39093        1066     0.02120     0.32054 
    0.26360     0.26070     0.79630     1.06270 0.48       39190        1027     0.02160     0.32659 
    0.26850     0.27090     0.81090     1.08280 0.47       38899        1117     0.02200     0.33263 
    0.27290     0.27090     0.82550     1.10230 0.46       38736        1070     0.02240     0.33868 
    0.27780     0.28120     0.84080     1.12210 0.46       38581        1129     0.02280     0.34473 
    0.28220     0.28120     0.85540     1.14170 0.45       38552        1094     0.02320     0.35078 
    0.28710     0.29080     0.87000     1.16130 0.44       38469        1159     0.02360     0.35683 
    0.29390     0.29080     0.88460     1.18110 0.43       39042        1159     0.02400     0.36287 
    0.29770     0.30070     0.89980     1.20060 0.43       38270        1270     0.02440     0.36892 
    0.30260     0.30070     0.91440     1.22020 0.42       38546        1233     0.02480     0.37497 
    0.30630     0.31030     0.92900     1.23970 0.41       37972        1262     0.02520     0.38102 
    0.31190     0.31030     0.94360     1.25980 0.41       38033        1262     0.02560     0.38706 
    0.31810     0.32060     0.95820     1.27940 0.40       38384        1338     0.02600     0.39311 
    0.32250     0.32060     0.97350     1.29920 0.40       38432        1423     0.02640     0.39916 
    0.32740     0.32990     0.98740     1.31870 0.39       38231        1482     0.02680     0.40521 
    0.33180     0.32990     1.00200     1.33850 0.38       38035        1399     0.02720     0.41126 
    0.33670     0.34010     1.01730     1.35810 0.38       37914        1571     0.02760     0.41730 
    0.34290     0.34010     1.03190     1.37770 0.37       37828        1490     0.02800     0.42335 
    0.34730     0.34940     1.04650     1.39720 0.37       38015        1557     0.02840     0.42940 
    0.35160     0.34940     1.06110     1.41680 0.36       37829        1581     0.02880     0.43545 
    0.35720     0.35960     1.07570     1.43660 0.36       38226        1649     0.02920     0.44150 
    0.36150     0.35960     1.09090     1.45640 0.35       38273        1618     0.02960     0.44754 
    0.36770     0.36890     1.10550     1.47620 0.35       38152        1688     0.03000     0.45359 
    0.37080     0.36890     1.12010     1.49550 0.35       37818        1780     0.03040     0.45964 
    0.37520     0.37920     1.13480     1.51530 0.34       37606        1761     0.03080     0.46569 
    0.38010     0.37920     1.15000     1.53510 0.34       37825        1862     0.03120     0.47174 
    0.38510     0.38880     1.16460     1.55470 0.33       37987        1863     0.03160     0.47778 
    0.39130     0.38880     1.17920     1.57430 0.33       37684        1866     0.03200     0.48383 
    0.39560     0.39840     1.19380     1.59380 0.33       37649        1985     0.03240     0.48988 
    0.40060     0.39840     1.20840     1.61360 0.32       37532        1911     0.03280     0.49593 
    0.40560     0.40830     1.22370     1.63320 0.32       38070        1999     0.03320     0.50197 
    0.41050     0.40830     1.23830     1.65300 0.31       37479        1980     0.03360     0.50802 
    0.41610     0.41820     1.25290     1.67260 0.31       37350        2001     0.03400     0.51407 
    0.41920     0.41820     1.26750     1.69210 0.31       37627        2016     0.03440     0.52012 
    0.42420     0.42810     1.28270     1.71220 0.30       37411        2106     0.03480     0.52617 
    0.43040     0.42810     1.29730     1.73170 0.30       37291        2088     0.03520     0.53221 
    0.43410     0.43740     1.31190     1.75130 0.30       37472        2203     0.03560     0.53826 
    0.43970     0.44270     1.32650     1.77090 0.29       37638        2111     0.03600     0.54431 
    0.44460     0.44270     1.34180     1.79070 0.29       37668        2186     0.03640     0.55036 
    0.44960     0.45290     1.35640     1.81020 0.29       37396        2241     0.03680     0.55641 
    0.45520     0.45290     1.37100     1.83000 0.29       37453        2246     0.03720     0.56245 
    0.45950     0.46220     1.38560     1.84960 0.28       38085        2312     0.03760     0.56850 
    0.46450     0.46220     1.40150     1.86920 0.28       37628        2336     0.03800     0.57455 
    0.46940     0.47220     1.41540     1.88920 0.28       37144        2364     0.03840     0.58060 
    0.47380     0.47220     1.43070     1.90850 0.27       37215        2388     0.03880     0.58665 
    0.47940     0.48210     1.44530     1.92830 0.27       37455        2479     0.03920     0.59269 
    0.48430     0.48210     1.45920     1.94790 0.27       37858        2442     0.03960     0.59874 
    0.48870     0.49230     1.47510     1.96800 0.27       37412        2473     0.04000     0.60479 
    0.49490     0.49230     1.48970     1.98730 0.26       37606        2396     0.04040     0.61084 
    0.49860     0.50130     1.50430     2.00680 0.26       37485        2435     0.04080     0.61688 
    0.50350     0.50690     1.51890     2.02660 0.26       37423        2568     0.04120     0.62293 
    0.50790     0.50690     1.53420     2.04620 0.26       37299        2451     0.04160     0.62898 
    0.51350     0.51650     1.54880     2.06600 0.25       37361        2583     0.04200     0.63503 
    0.51970     0.51650     1.56340     2.08560 0.25       37230        2632     0.04240     0.64108 
    0.52340     0.52610     1.57800     2.10540 0.25       37351        2699     0.04280     0.64712 
    0.52900     0.52610     1.59320     2.12520 0.25       37400        2726     0.04320     0.65317 
    0.53270     0.53640     1.60780     2.14500 0.25       37481        2721     0.04360     0.65922 
    0.53830     0.53640     1.62240     2.16460 0.24       37250        2711     0.04400     0.66527 
    0.54390     0.54570     1.63700     2.18390 0.24       37328        2784     0.04440     0.67132 
    0.54880     0.55060     1.65160     2.20370 0.24       37063        2800     0.04480     0.67736 
    0.55380     0.55620     1.66690     2.22320 0.24       37199        2751     0.04520     0.68341 
    0.55810     0.55620     1.68150     2.24330 0.24       37428        2995     0.04560     0.68946 
    0.56250     0.56550     1.69610     2.26260 0.23       37379        2754     0.04600     0.69551 
    0.56870     0.57050     1.71070     2.28240 0.23       37064        2876     0.04640     0.70155 
    0.57240     0.57050     1.72590     2.30220 0.23       37464        2844     0.04680     0.70760 
    0.57670     0.58070     1.74050     2.32200 0.23       37617        2837     0.04720     0.71365 
    0.58230     0.58100     1.75580     2.34160 0.23       37124        2989     0.04760     0.71970 
    0.58790     0.59000     1.76980     2.36110 0.23       37473        2942     0.04800     0.72575 
    0.59410     0.59560     1.78500     2.38070 0.22       37476        2930     0.04840     0.73179 
    0.59780     0.59560     1.80020     2.40050 0.22       37401        3009     0.04880     0.73784 
    0.60280     0.60490     1.81420     2.42010 0.22       37407        3039     0.04920     0.74389 
    0.60650     0.60490     1.82880     2.43960 0.22       37276        3079     0.04960     0.74994 
    0.61210     0.61450     1.84340     2.45940 0.22       37310        3031     0.05000     0.75599 
    0.61890     0.62010     1.85870     2.47900 0.22       37134        3049     0.05040     0.76203 
    0.62260     0.62010     1.87330     2.49880 0.21       37815        3029     0.05080     0.76808 
    0.62760     0.62940     1.88790     2.51860 0.21       37638        3153     0.05120     0.77413 
    0.63130     0.62940     1.90310     2.53790 0.21       37413        3104     0.05160     0.78018 
    0.63690     0.63900     1.91770     2.55800 0.21       37483        3220     0.05200     0.78623 
    0.64250     0.64490     1.93230     2.57760 0.21       37540        3220     0.05240     0.79227 
    0.64740     0.64490     1.94690     2.59740 0.21       37453        3268     0.05280     0.79832 
    0.65180     0.65360     1.96150     2.61670 0.20       37490        3210     0.05320     0.80437 
    0.65730     0.65910     1.97680     2.63650 0.20       37363        3316     0.05360     0.81042 
    0.66170     0.65910     1.99140     2.65630 0.20       37303        3258     0.05400     0.81646 
    0.66790     0.66940     2.00600     2.67590 0.20       37429        3377     0.05440     0.82251 
    0.67100     0.66940     2.02060     2.69570 0.20       37511        3261     0.05480     0.82856 
    0.67590     0.67840     2.03520     2.71500 0.20       37612        3252     0.05520     0.83461 
    0.68030     0.68360     2.05040     2.73500 0.20       37248        3372     0.05560     0.84066 
    0.68520     0.68360     2.06500     2.75460 0.20       37435        3308     0.05600     0.84670 
    0.69140     0.69360     2.07960     2.77440 0.19       37726        3481     0.05640     0.85275 
    0.69580     0.69360     2.09420     2.79370 0.19       37886        3572     0.05680     0.85880 
    0.70010     0.70320     2.10950     2.81330 0.19       37408        3499     0.05720     0.86485 
    0.70510     0.70320     2.12410     2.83310 0.19       37597        3461     0.05760     0.87090 
    0.71000     0.71310     2.13870     2.85290 0.19       37577        3546     0.05800     0.87694 
    0.71560     0.71310     2.15330     2.87240 0.19       37470        3566     0.05840     0.88299 
    0.71930     0.72300     2.16850     2.89200 0.19       37426        3621     0.05880     0.88904 
    0.72430     0.72300     2.18310     2.91180 0.19       37466        3622     0.05920     0.89509 
    0.73050     0.73320     2.19770     2.93160 0.18       37673        3689     0.05960     0.90114 
    0.73480     0.73320     2.21230     2.95140 0.18       37294        3672     0.06000     0.90718 
    0.73980     0.74220     2.22630     2.97070 0.18       37138        3751     0.06040     0.91323 
    0.74420     0.74750     2.24220     2.99030 0.18       37258        3690     0.06080     0.91928 
    0.74970     0.74750     2.25680     3.01010 0.18       37906        3785     0.06120     0.92533 
    0.75530     0.75740     2.27080     3.02970 0.18       37205        3817     0.06160     0.93137 
    0.75970     0.75740     2.28540     3.04950 0.18       37906        3817     0.06200     0.93742 
    0.76460     0.76700     2.30060     3.06900 0.18       37885        3715     0.06240     0.94347 
    0.76960     0.77230     2.31520     3.08890 0.18       37474        3846     0.06280     0.94952 
    0.77390     0.77230     2.32980     3.10870 0.17       37491        3919     0.06320     0.95557 
    0.77890     0.78160     2.34440     3.12820 0.17       37607        3992     0.06360     0.96161 
    0.78380     0.78690     2.35970     3.14780 0.17       37694        3996     0.06400     0.96766 
    0.78880     0.78690     2.37430     3.16730 0.17       37058        4012     0.06440     0.97371 
    0.79500     0.79710     2.38890     3.18720 0.17       37927        4106     0.06480     0.97976 
    0.79870     0.79710     2.40350     3.20670 0.17       37622        4010     0.06520     0.98581 
    0.80370     0.80640     2.41870     3.22650 0.17       37528        3969     0.06560     0.99185 
    0.80800     0.80640     2.43330     3.24610 0.17       37531        3977     0.06600     0.99790 
    0.81360     0.81630     2.44790     3.26590 0.17       37424        4038     0.06640     1.00395 
    0.81980     0.81630     2.46250     3.28570 0.17       37620        3989     0.06680     1.01000 
    0.82350     0.82630     2.47710     3.30500 0.17       37481        4134     0.06720     1.01605 
    0.82850     0.82630     2.49240     3.32480 0.16       37578        4183     0.06760     1.02209 
    0.83280     0.83620     2.50700     3.34440 0.16       37621        4236     0.06800     1.02814 
    0.83780     0.83620     2.52160     3.36440 0.16       37743        4157     0.06840     1.03419 
    0.84340     0.84640     2.53620     3.38400 0.16       37697        4198     0.06880     1.04024 
    0.84830     0.84640     2.55140     3.40360 0.16       37598        4279     0.06920     1.04628 
    0.85330     0.85570     2.56600     3.42310 0.16       37482        4376     0.06960     1.05233 
    0.85760     0.85570     2.58060     3.44320 0.16       37478        4229     0.07000     1.05838 
    0.86260     0.86560     2.59530     3.46270 0.16       37612        4442     0.07040     1.06443 
    0.86820     0.86560     2.61050     3.48230 0.16       37513        4425     0.07080     1.07048 
    0.87310     0.87560     2.62510     3.50190 0.16       37734        4339     0.07120     1.07652 
    0.87750     0.87560     2.63970     3.52170 0.16       37701        4468     0.07160     1.08257 
    0.88310     0.88580     2.65430     3.54150 0.16       37715        4403     0.07200     1.08862 
    0.88740     0.88580     2.66960     3.56100 0.15       37621        4610     0.07240     1.09467 
    0.89300     0.89480     2.68420     3.58060 0.15       37744        4589     0.07280     1.10072 
    0.89730     0.90040     2.69940     3.60020 0.15       37470        4604     0.07320     1.10676 
    0.90230     0.90040     2.71400     3.62000 0.15       37571        4483     0.07360     1.11281 
    0.90720     0.91030     2.72800     3.63980 0.15       37440        4612     0.07400     1.11886 
    0.91160     0.91030     2.74380     3.65910 0.15       37697        4535     0.07440     1.12491 
    0.91720     0.91960     2.75840     3.67890 0.15       37859        4809     0.07480     1.13096 
    0.92210     0.91960     2.77310     3.69870 0.15       37437        4630     0.07520     1.13700 
    0.92650     0.92980     2.78770     3.71850 0.15       37511        4775     0.07560     1.14305 
    0.93140     0.92980     2.80290     3.73810 0.15       37611        4645     0.07600     1.14910 
    0.93640     0.93970     2.81750     3.75790 0.15       37706        4792     0.07640     1.15515 
    0.94130     0.93940     2.83210     3.77750 0.15       37333        4667     0.07680     1.16119 
    0.94690     0.94970     2.84670     3.79700 0.15       37685        4859     0.07720     1.16724 
    0.95190     0.94970     2.86130     3.81680 0.15       37375        4751     0.07760     1.17329 
    0.95690     0.95900     2.87660     3.83610 0.14       37974        4868     0.07800     1.17934 
    0.96060     0.95900     2.89120     3.85590 0.14       37678        4844     0.07840     1.18539 
    0.96620     0.96920     2.90580     3.87550 0.14       37681        4963     0.07880     1.19143 
    0.97240     0.96920     2.92040     3.89560 0.14       37839        4941     0.07920     1.19748 
    0.97670     0.97880     2.93560     3.91510 0.14       37760        5023     0.07960     1.20353 
    0.98100     0.97880     2.95020     3.93490 0.14       37700        4976     0.08000     1.20958 
    0.98480     0.98870     2.96480     3.95450 0.14       37513        5031     0.08040     1.21563 
    0.98970     0.98870     2.97940     3.97400 0.14       37504        4954     0.08080     1.22167 
    0.99590     0.99860     2.99470     3.99390 0.14       37449        5158     0.08120     1.22772 
    1.00030     0.99860     3.00930     4.01320 0.14       37463        5081     0.08160     1.23377 
    1.00580     1.00830     3.02450     4.03300 0.14       37791        4988     0.08200     1.23982 
    1.01020     1.00830     3.03850     4.05250 0.14       37716        5195     0.08240     1.24586 
    1.01510     1.01820     3.05370     4.07260 0.14       37609        5277     0.08280     1.25191 
    1.02130     1.01820     3.06900     4.09220 0.14       37755        5193     0.08320     1.25796 
    1.02570     1.02780     3.08360     4.11170 0.14       37764        5270     0.08360     1.26401 
    1.03000     1.02780     3.09820     4.13150 0.14       37601        5344     0.08400     1.27006 
    1.03500     1.03860     3.11210     4.15110 0.14       37948        5387     0.08440     1.27610 
    1.03990     1.03860     3.12800     4.17090 0.13       37770        5282     0.08480     1.28215 
    1.04550     1.04760     3.14200     4.19020 0.13       37645        5486     0.08520     1.28820 
    1.04920     1.04760     3.15660     4.21000 0.13       37538        5389     0.08560     1.29425 
    1.05420     1.05760     3.17180     4.22960 0.13       37697        5440     0.08600     1.30030 
    1.05980     1.05760     3.18640     4.24940 0.13       37923        5470     0.08640     1.30634 
    1.06410     1.06750     3.20100     4.26890 0.13       37774        5670     0.08680     1.31239 
    1.06970     1.06750     3.21570     4.28850 0.13       37489        5491     0.08720     1.31844 
    1.07410     1.07740     3.23030     4.30830 0.13       38038        5617     0.08760     1.32449 
    1.07900     1.07740     3.24490     4.32810 0.13       37676        5737     0.08800     1.33054 
    1.08400     1.08700     3.26010     4.34790 0.13       37944        5497     0.08840     1.33658 
    1.08830     1.08700     3.27470     4.36720 0.13       37800        5582     0.08880     1.34263 
    1.09390     1.09660     3.28930     4.38710 0.13       38075        5567     0.08920     1.34868 
    1.09950     1.09660     3.30390     4.40660 0.13       38051        5716     0.08960     1.35473 
    1.10380     1.10690     3.31920     4.42640 0.13       37549        5694     0.09000     1.36077 
    1.10940     1.10690     3.33380     4.44600 0.13       37865        5565     0.09040     1.36682 
    1.11370     1.11680     3.34840     4.46550 0.13       37593        5730     0.09080     1.37287 
    1.11870     1.11680     3.36300     4.48530 0.13       37835        5805     0.09120     1.37892 
    1.12430     1.12670     3.37820     4.50490 0.13       37915        5760     0.09160     1.38497 
    1.12800     1.12670     3.39280     4.52500 0.13       37524        5761     0.09200     1.39101 
    1.13300     1.13570     3.40740     4.54430 0.12       38060        5947     0.09240     1.39706 
    1.13610     1.14130     3.42200     4.56430 0.12       37722        5808     0.09280     1.40311 
    1.14470     1.14130     3.43730     4.58390 0.12       37826        5829     0.09320     1.40916 
    1.15090     1.15120     3.45190     4.60350 0.12       37880        6152     0.09360     1.41521 
    1.15090     1.15120     3.46580     4.62300 0.12       37849        5857     0.09400     1.42125 
    1.16090     1.16080     3.48110     4.64260 0.12       38099        6063     0.09440     1.42730 
    1.16090     1.16080     3.49570     4.66240 0.12       37703        6084     0.09480     1.43335 
    1.17020     1.17070     3.51090     4.68220 0.12       38165        6097     0.09520     1.43940 
    1.17580     1.17070     3.52550     4.70200 0.12       38021        6170     0.09560     1.44545 
    1.17580     1.18070     3.53950     4.72130 0.12       37558        6175     0.09600     1.45149 
    1.18570     1.18070     3.55410     4.74140 0.12       37958        6018     0.09640     1.45754 
    1.18510     1.19090     3.56930     4.76090 0.12       37717        6181     0.09680     1.46359 
    1.19440     1.19120     3.58400     4.78050 0.12       37783        6041     0.09720     1.46964 
    1.19990     1.19990     3.59860     4.80010 0.12       38455        6337     0.09760     1.47568 
    1.20060     1.19990     3.61320     4.81960 0.12       37712        6268     0.09800     1.48173 
    1.20920     1.21010     3.62840     4.83970 0.12       38046        6307     0.09840     1.48778 
    1.21540     1.21010     3.64300     4.85920 0.12       38084        6083     0.09880     1.49383 
    1.21540     1.21970     3.65760     4.87880 0.12       37817        6335     0.09920     1.49988 
    1.22470     1.21970     3.67220     4.89840 0.12       37896        6388     0.09960     1.50592 
    1.22540     1.23000     3.68680     4.91840 0.12       37834        6334     0.10000     1.51197 
